# Input file       =  1226062160_0001.fits
# Candidate        =  PSR_2330-2005
# Telescope        =  MWA128T
# Epoch_topo       =  58434.534131944441
# Epoch_bary       =  N/A
# T_sample         =  0.0001
# Data Folded      =  1800000
# Data Avg         =  6.05410184997255e-07
# Data StdDev      =  2242.24143172552 
# Profile Bins     =  1024
# Profile Avg      =  -67.4951775798857
# Profile StdDev   =  94008.8299369634 
# Reduced chi-sqr  =  14.984
# Prob(Noise)      <  0   (~107.4 sigma)
# Best DM          =  8.456
# P_topo (ms)      =  1643.77065441599  +/- 0.0148
# P'_topo (s/s)    =  -0                +/- 6.36e-07
# P''_topo (s/s^2) =  0                 +/- 2.29e-08
# P_bary (ms)      =  N/A
# P'_bary (s/s)    =  N/A
# P''_bary (s/s^2) =  N/A
# P_orb (s)        =  N/A
# asin(i)/c (s)    =  N/A
# eccentricity     =  N/A
# w (rad)          =  N/A
# T_peri           =  N/A
######################################################
   0  -121465.9
   1  -11393.03
   2  40903.71
   3  42340.64
   4  188531.6
   5  -140753.7
   6  -94502.27
   7  -311292.3
   8  -152445.7
   9  -7835.627
  10  -103881.7
  11  -59090.61
  12  20291.81
  13  -53288.69
  14  -142811.2
  15  -78908.14
  16  -106682.2
  17  -26145.14
  18  -18881.02
  19  -89495.54
  20  84787.11
  21  -135724.1
  22  119386
  23  -234427.8
  24  83284.24
  25  -158260.2
  26  -10477.1
  27  -155420.3
  28  -48000.46
  29  211867.9
  30  88334.46
  31  29318.19
  32  -91652.16
  33  93390.12
  34  -203676
  35  -59074.71
  36  81171.65
  37  -97015.01
  38  -185779.9
  39  -171268
  40  -19358.7
  41  -29400.37
  42  107118
  43  -172629.5
  44  131797.6
  45  -38199.16
  46  149535.7
  47  -133120.1
  48  -64732.72
  49  -104295
  50  -23710.51
  51  -20721.05
  52  -189646.4
  53  -5627.962
  54  72989.5
  55  -80129.2
  56  -291991.2
  57  27716.78
  58  -140070.7
  59  -8319.107
  60  -139786.6
  61  -13927.2
  62  -31931.87
  63  44155.12
  64  -71861.78
  65  -93849.87
  66  -63676.79
  67  -265371.8
  68  -167876.2
  69  -106435.1
  70  -128321.6
  71  -120918.6
  72  9090.553
  73  44973.02
  74  136904.2
  75  -153239.8
  76  -58741.15
  77  -55838.11
  78  48351.23
  79  43204.93
  80  148102.3
  81  -96765.1
  82  -21048.68
  83  -7918.968
  84  177597.9
  85  -257311.3
  86  -924.1694
  87  -119594.4
  88  -45068.46
  89  -72198.27
  90  -144475.9
  91  -36058.15
  92  -111975.3
  93  -157829.8
  94  -33184.55
  95  -280912
  96  -128947
  97  -195546.6
  98  -59459.2
  99  -164139.9
 100  -76693.41
 101  -83094.16
 102  90477.98
 103  -64132.98
 104  -113792.5
 105  -13449.11
 106  72599.06
 107  64310.77
 108  -11476.48
 109  -100393.8
 110  -112566.6
 111  -132136
 112  -14905.02
 113  72811.51
 114  108438.5
 115  108969.2
 116  101370.9
 117  95349.98
 118  -190102.3
 119  -35451.66
 120  -188122.8
 121  -26203.91
 122  -141917
 123  -57457.2
 124  -200237.4
 125  -111150.8
 126  -31893.65
 127  -76448.05
 128  -173404
 129  160224.5
 130  -110750.8
 131  101811.1
 132  38994.07
 133  21650.27
 134  -285076.2
 135  -35015.14
 136  -19305.55
 137  45647.79
 138  -47393.3
 139  -130687.4
 140  -93495.19
 141  -42177.99
 142  79876.02
 143  -69281.1
 144  -72963.2
 145  -37147.84
 146  -97065.79
 147  82029.88
 148  170570.7
 149  60068.96
 150  -10830.41
 151  -209634.2
 152  -69787.25
 153  1681.002
 154  -68899.31
 155  -39629.38
 156  -76347.82
 157  -33129.86
 158  -152849.4
 159  -177465.3
 160  -2125.616
 161  33761.18
 162  -77031.7
 163  -3065.874
 164  165559.6
 165  -305632.9
 166  -161360
 167  -117844.8
 168  -57386.85
 169  -83500.87
 170  -34009.67
 171  96520.46
 172  66189.13
 173  64787.64
 174  -176279.4
 175  -171242.6
 176  -54930.54
 177  17941.21
 178  41757.07
 179  28846.93
 180  -119180.5
 181  -51724.27
 182  -370699.9
 183  72101.53
 184  35213.71
 185  -184606.5
 186  -24107.04
 187  65649.66
 188  62388.01
 189  -123129.1
 190  -343587.7
 191  -138300.2
 192  -71368.22
 193  27627.45
 194  -135708.8
 195  -53740.43
 196  -153053.7
 197  -91508.1
 198  -74039.7
 199  -148586.8
 200  -126172.5
 201  -14815.9
 202  40472.81
 203  -49631.42
 204  -104122.3
 205  67486.99
 206  -71236.81
 207  -176408.3
 208  -211842
 209  -121728.5
 210  -144108.2
 211  -19535.63
 212  30181.27
 213  -91651.91
 214  -24979.79
 215  -92182.97
 216  -112787.5
 217  -46139.09
 218  -58621.68
 219  -21039.83
 220  -22341.06
 221  -127251.1
 222  2248.503
 223  -174878.5
 224  -192986
 225  -206360.5
 226  -53389.42
 227  -51658.07
 228  81783.02
 229  -92026.59
 230  -144733.3
 231  -101575.3
 232  6449.112
 233  -47164.5
 234  29763.25
 235  -74934.37
 236  -119573.9
 237  4502.056
 238  33579.93
 239  -93002.07
 240  -99414.12
 241  -161371.1
 242  116132.7
 243  -73493.07
 244  -87820.9
 245  97418.47
 246  -16332.42
 247  -66108.69
 248  -33009.76
 249  43551.45
 250  -197221.9
 251  -45124.24
 252  -67954.49
 253  131952.4
 254  -204482
 255  21214.71
 256  208965
 257  -52910.07
 258  20539.48
 259  -11044.62
 260  -155823
 261  48765.42
 262  -6919.066
 263  76802.85
 264  -2551.598
 265  835.1429
 266  26100.53
 267  -103199.3
 268  53020.09
 269  18158.66
 270  -95869.15
 271  25425.41
 272  -149989.3
 273  -91917.66
 274  45207.18
 275  105208.2
 276  -148959.6
 277  -32863.2
 278  -245445.7
 279  -144270
 280  -213710.3
 281  -169902.6
 282  -168509.5
 283  -25882.34
 284  -170524
 285  51786.16
 286  41562.72
 287  41136.6
 288  -59151.03
 289  32903.36
 290  -128555.8
 291  -80429.08
 292  -80254.02
 293  -168863.7
 294  -40585.94
 295  -15053.11
 296  11504.78
 297  28005.93
 298  26129.81
 299  267677
 300  -65158.2
 301  38144.16
 302  125571
 303  -235180.8
 304  -318522.2
 305  -82004.28
 306  -158103.4
 307  -315316.9
 308  -37626.09
 309  86247.2
 310  -15523.47
 311  175635.8
 312  -131231.3
 313  -39928.55
 314  -42273.04
 315  182678.8
 316  -171536.9
 317  -95624.49
 318  174281.4
 319  19578.13
 320  57478.14
 321  130229.5
 322  65144.17
 323  95473.25
 324  -144673.5
 325  81671.42
 326  -120180.6
 327  -74709.96
 328  -12183.16
 329  -52183.76
 330  -211862.6
 331  -51646.01
 332  -62352.76
 333  -86048.4
 334  -203905.9
 335  92325.99
 336  -140340.9
 337  -161030
 338  -88884.11
 339  131974
 340  107385.7
 341  -6100.332
 342  -71188.71
 343  20214.01
 344  121672.9
 345  2953.556
 346  -22791.79
 347  -44076.47
 348  -28106.35
 349  58079.19
 350  -69013.43
 351  -274082.1
 352  53105.89
 353  -28987.12
 354  -27149.59
 355  73737.17
 356  -63362.07
 357  -87752.22
 358  107124.5
 359  26751.12
 360  100766.6
 361  71338.95
 362  -40548.28
 363  15794.2
 364  30383.69
 365  -192718.9
 366  -52153.3
 367  -210805.1
 368  -197208.5
 369  -28479.26
 370  50282.13
 371  182685.2
 372  -160306.3
 373  145332.5
 374  83538.45
 375  -10198.54
 376  4154.695
 377  -32513.6
 378  -107799.8
 379  -206883.8
 380  -135912.7
 381  -54198.18
 382  8040.036
 383  33079.3
 384  2030.853
 385  198334.3
 386  32928.02
 387  -22202.14
 388  110858.7
 389  -100433.2
 390  227991.2
 391  113760.1
 392  40863.48
 393  -116044
 394  -29311.84
 395  -118923.8
 396  29073.52
 397  -118532.5
 398  -208461.4
 399  -176773.8
 400  70149.45
 401  -136010.5
 402  99266.55
 403  76599.88
 404  -56058.52
 405  18823.39
 406  76396.97
 407  98163.83
 408  -38326.59
 409  56931.02
 410  35834.19
 411  -112170.7
 412  -7987.333
 413  94000.71
 414  -193306.1
 415  -123926.2
 416  -27510.43
 417  -7612.632
 418  -47054.98
 419  -64271.04
 420  -107861.3
 421  -116428.6
 422  -181866.9
 423  -74362.84
 424  -151336.6
 425  12432.73
 426  84564.98
 427  -545.647
 428  170512.5
 429  -41875.76
 430  235633.2
 431  -79410.33
 432  12725.52
 433  -89820.57
 434  -55237.62
 435  12908.84
 436  -115626
 437  -94317.2
 438  -120943
 439  -286331.6
 440  -151106.7
 441  157044.3
 442  -92583.22
 443  -80122.06
 444  -13584.89
 445  204919.6
 446  15892.85
 447  34220.91
 448  -115041.6
 449  -250.6072
 450  186105
 451  -120665.2
 452  -115740.9
 453  -94530.42
 454  -110033.2
 455  36254.99
 456  73635.52
 457  67163.11
 458  -13960.19
 459  89858.05
 460  -59485.05
 461  -155123
 462  -58222.05
 463  27204.56
 464  -134275.8
 465  -70720.66
 466  -76061.89
 467  91797.44
 468  -92705.64
 469  21163.34
 470  168151
 471  15035.5
 472  -123018.7
 473  -63974.89
 474  25573.51
 475  7871.35
 476  34789.41
 477  -42228.14
 478  130705.8
 479  134625.5
 480  196549.3
 481  23480.43
 482  -38815.91
 483  10796.79
 484  -101000.8
 485  61377.45
 486  81350.76
 487  -37315.2
 488  7419.943
 489  165115.5
 490  -48353.74
 491  -115576.5
 492  -132898.4
 493  13945.35
 494  121604.2
 495  126250.8
 496  -132016
 497  -155860.8
 498  -74311.17
 499  -135702
 500  84295.84
 501  -82475.33
 502  -21907.95
 503  -21191.02
 504  85826.84
 505  68966.98
 506  -5750.833
 507  -81207.78
 508  -10879.35
 509  -182672
 510  -165370.3
 511  -15412.26
 512  -27226.06
 513  -39078.64
 514  57931.03
 515  79722.55
 516  144259.4
 517  -175080.4
 518  37396.49
 519  -45486.48
 520  -48600.6
 521  -57185.43
 522  -137388.8
 523  43869.5
 524  -142691.1
 525  -110671.6
 526  159458.7
 527  -66332.87
 528  14653.92
 529  -63954.89
 530  -8709.068
 531  62386.14
 532  46796.87
 533  89330.43
 534  89950.02
 535  -38450.09
 536  70635.32
 537  50638.28
 538  88213.51
 539  4113.363
 540  -225386.3
 541  -77979.66
 542  8292.98
 543  -34325.58
 544  70631.77
 545  -84626.38
 546  -48690.73
 547  46742.04
 548  74084.48
 549  -1447.154
 550  156603.3
 551  91149.72
 552  2239.334
 553  22073.7
 554  -93754.94
 555  -30283.67
 556  -208775.4
 557  -131749.1
 558  317480.1
 559  -111608.8
 560  -25585.46
 561  -223976.5
 562  -38906.59
 563  47082.72
 564  -71558.2
 565  28566.21
 566  -75333.54
 567  40078.95
 568  136205.8
 569  57461.94
 570  -153833.1
 571  31872.84
 572  -152888.7
 573  52483.33
 574  -31062.19
 575  -67603.79
 576  -41227.25
 577  113481.1
 578  8232.617
 579  -252357.2
 580  27960.4
 581  -51394.17
 582  -14001.4
 583  -30260.1
 584  128744.9
 585  25706.55
 586  -20257.57
 587  -49224.53
 588  44581.48
 589  87116.29
 590  61573.84
 591  101540.8
 592  -30887.14
 593  18946.71
 594  -118499.6
 595  -11778.77
 596  -72713.8
 597  -76340.78
 598  -144168.3
 599  -73213.88
 600  -104025.8
 601  133675
 602  -55554.16
 603  -22649.82
 604  -41546.2
 605  -110922.2
 606  -52168.32
 607  -105102.6
 608  -82841.68
 609  3522.764
 610  -11368.5
 611  27992.97
 612  49535.69
 613  13717.01
 614  22894.09
 615  -34650.76
 616  124052.6
 617  16558.55
 618  17443.2
 619  -59853.91
 620  -49073.9
 621  4428.208
 622  -170491.1
 623  -77807.05
 624  30321.04
 625  19278.54
 626  24980.23
 627  64086.54
 628  24652.86
 629  20268
 630  12393.97
 631  -28205.62
 632  63164.56
 633  -123436.4
 634  -45251.73
 635  15910.84
 636  -26929.33
 637  -3909.695
 638  -58626.61
 639  25518.16
 640  -156066.2
 641  -4080.733
 642  -11930.9
 643  11130.3
 644  9257.442
 645  -102695.8
 646  -123772
 647  15464.03
 648  -180972.5
 649  90222.44
 650  -88189.91
 651  -76312.5
 652  111096.3
 653  -242189.4
 654  -106041.8
 655  -167594.5
 656  13276.28
 657  -31689.45
 658  -45303.12
 659  -181360.6
 660  -89475.13
 661  -105205.1
 662  -116009.6
 663  -120079.7
 664  51737.12
 665  13443.31
 666  -171306.8
 667  -303609
 668  -231933.3
 669  -209898.6
 670  32169
 671  -60066.36
 672  -41914.77
 673  38457.61
 674  -145249.2
 675  -248444.4
 676  -27142.04
 677  -136264.8
 678  -56866.75
 679  -55362.14
 680  -75963.77
 681  -95082.05
 682  -51890.85
 683  -147608.8
 684  -70341.23
 685  -145813.9
 686  -69917.33
 687  -140625.5
 688  -120825.9
 689  -121664.7
 690  -21737.7
 691  129716.9
 692  -72491.75
 693  24259.12
 694  144735
 695  18028.56
 696  93573.44
 697  -75599.21
 698  -29874.25
 699  -328374.3
 700  -64640.91
 701  71011.85
 702  16535.83
 703  -84652.23
 704  -6576.151
 705  -39265.9
 706  -188411.6
 707  195147.5
 708  -157112.2
 709  -128759.5
 710  23391.46
 711  -75024.05
 712  -108225.1
 713  54081.7
 714  -26076.72
 715  -27730.19
 716  51202.66
 717  89056
 718  98058.06
 719  -161127.9
 720  20220.64
 721  85027.8
 722  -1950.018
 723  -20471.21
 724  -19355.72
 725  -45273.22
 726  45930.17
 727  -3458.764
 728  -143837.8
 729  -70689.66
 730  -110041.4
 731  -43672.67
 732  -115709.9
 733  46027.46
 734  -18929.55
 735  -224904.8
 736  -44443.39
 737  416.8215
 738  -62947.54
 739  28277.68
 740  -81739.48
 741  -140015.3
 742  -23982.36
 743  71061.04
 744  -129677
 745  13743.65
 746  -132194.6
 747  -166105.6
 748  75394.38
 749  22626.76
 750  -110346.1
 751  -62626.25
 752  -255191.5
 753  9740.208
 754  -75917.08
 755  -230484
 756  -56593.68
 757  -9577.1
 758  -112214.5
 759  22744.88
 760  -70403.24
 761  -58066.41
 762  -43986.93
 763  -108524
 764  -123723.5
 765  142510.7
 766  39619.16
 767  42585.22
 768  70108.64
 769  -74978.14
 770  -52045.99
 771  -16770.08
 772  -133186.5
 773  17926.25
 774  -76402.83
 775  -14486.82
 776  -97210.82
 777  -10400.06
 778  -30967.52
 779  17483.73
 780  -93454.57
 781  47266.97
 782  -67756.93
 783  -7765.442
 784  -107431.1
 785  83136.82
 786  -49647.47
 787  -6285.76
 788  37959.91
 789  -82995
 790  -102277.6
 791  -143339
 792  67993.82
 793  -23595
 794  -166412.2
 795  -87509.51
 796  36461.38
 797  76263.18
 798  -68200.73
 799  -76862.86
 800  -99525.5
 801  -39405.19
 802  -108405.5
 803  -237211.2
 804  -178505.2
 805  -98067.04
 806  -123296.7
 807  -237553
 808  -147780.1
 809  -210198.3
 810  -29045.79
 811  -73459.51
 812  -206754.8
 813  60712.89
 814  -203068.4
 815  -76761.17
 816  -55373.94
 817  37052.32
 818  -21179.12
 819  -99646.26
 820  -38161.88
 821  -123630.9
 822  24745.18
 823  -81997.73
 824  50877.25
 825  -59948.7
 826  -31498.96
 827  -114923.6
 828  -17895.42
 829  82215.42
 830  49091.39
 831  -51987.82
 832  -51437.87
 833  -10446.04
 834  128771.7
 835  -2602.291
 836  -66592.34
 837  -68029.45
 838  -94318.2
 839  -58114.85
 840  -64128.21
 841  -321007.6
 842  -54144.2
 843  -99435.3
 844  66741.87
 845  102264.8
 846  -29772.88
 847  -2321.141
 848  -77544.6
 849  41525.55
 850  21114.83
 851  -109846.8
 852  -65018.15
 853  -130170.6
 854  12528.73
 855  -83635.82
 856  -6853.708
 857  -182046.2
 858  -158642.9
 859  -282149.3
 860  -143700.3
 861  -112151.9
 862  -170717.5
 863  -238866.4
 864  -3427.508
 865  -102313.4
 866  54398.22
 867  53739.23
 868  -47878.93
 869  -112633.9
 870  -161315.4
 871  -132781.6
 872  -188133.8
 873  -214383.4
 874  -56083.89
 875  -80436.37
 876  -114162.3
 877  -114381.7
 878  -212555.8
 879  -161651
 880  -20193.54
 881  62499.23
 882  32669.72
 883  -171511.5
 884  -81731.16
 885  -19834.71
 886  -12364.27
 887  -43759.06
 888  95503.32
 889  169226.9
 890  -50876.06
 891  -90471.59
 892  -23721.31
 893  -76298.08
 894  -65421.86
 895  88287.52
 896  -180032.6
 897  13186.33
 898  -117992
 899  -14294.68
 900  60844.58
 901  63786.69
 902  -44565.97
 903  76144.48
 904  178089
 905  336265.8
 906  367006.1
 907  870489.6
 908  1870245
 909  3169310
 910  4909559
 911  4587020
 912  2904958
 913  1484767
 914  1193608
 915  1026426
 916  1154473
 917  1848674
 918  3173649
 919  3637134
 920  3137468
 921  1591759
 922  771061.1
 923  728005.8
 924  549283.2
 925  660532.8
 926  874481.8
 927  894021.5
 928  600208.2
 929  456209.8
 930  286521.6
 931  308108.7
 932  131623.7
 933  -61648.09
 934  44295.2
 935  49206.64
 936  -115215.5
 937  -164521.5
 938  -126397.7
 939  -103873.3
 940  -333357.2
 941  -96143.03
 942  -79980.41
 943  -14413.97
 944  -95624.15
 945  -81300.55
 946  49562.95
 947  -128904.2
 948  -181963.2
 949  -42341.89
 950  -191342.6
 951  21185.79
 952  -43992.11
 953  -130514.2
 954  -101972
 955  -84203.3
 956  -187146.2
 957  -257389.1
 958  -184801.6
 959  -121841.4
 960  -174435
 961  -48170.01
 962  -232885
 963  -87266.33
 964  37300.09
 965  -34948.57
 966  -148168.1
 967  58125.64
 968  24902.12
 969  -5916.692
 970  -6543.536
 971  -129891.1
 972  -19878.12
 973  -274072.2
 974  -82608.32
 975  20725.34
 976  -195578.2
 977  -195139.7
 978  -342342.4
 979  -205438.5
 980  -79070.83
 981  -132899.2
 982  -231518.2
 983  12267.5
 984  -37430.24
 985  -88271.75
 986  -52690.96
 987  42933.84
 988  -91753.2
 989  -336955
 990  -99318.97
 991  -24632.75
 992  -37435.12
 993  -46656.94
 994  -88116.94
 995  23822.14
 996  -6975.557
 997  -117957.4
 998  -32458.14
 999  21269.49
1000  -29479.08
1001  -20381.14
1002  -70140.77
1003  -21969.44
1004  -4056.736
1005  151566.6
1006  83192.09
1007  -13410.47
1008  -89859.47
1009  -112441.6
1010  -137163.4
1011  50756.3
1012  -57079.14
1013  38469.28
1014  -136825.3
1015  -135932.6
1016  -18560.85
1017  -189241.5
1018  25919.08
1019  -146462.3
1020  -97781.84
1021  -81375.14
1022  -128096.4
1023  -45788.15
